Data from Subt2_19-06-47-567.txt Node
Date: Wed Feb 22 19:06:47 CST 2023
User: Optics Lab
Spectrometer: FLMS14302
Trigger mode: 0
Integration Time (sec): 1.000000E-1
Scans to average: 1
Electric dark correction enabled: true
Nonlinearity correction enabled: false
Boxcar width: 0
XAxis mode: Wavelengths
Number of Pixels in Spectrum: 2048
>>>>>Begin Spectral Data<<<<<
338.578	5.35
338.961	5.35
339.343	5.35
339.725	26.11
340.108	28.71
340.49	-80.29
340.872	44.28
341.254	39.09
341.636	-43.96
342.018	-46.55
342.4	33.9
342.782	52.07
343.164	28.71
343.546	33.9
343.928	-7.62
344.309	-41.36
344.691	-46.55
345.073	54.66
345.455	36.5
345.836	-25.79
346.218	-30.98
346.599	-7.62
346.981	62.45
347.362	33.9
347.744	-95.86
348.125	-10.22
348.506	28.71
348.888	114.35
349.269	59.85
349.65	26.11
350.031	41.69
350.413	13.14
350.794	57.26
351.175	7.95
351.556	18.33
351.937	83.21
352.318	-7.62
352.698	13.14
353.079	7.95
353.46	-62.12
353.841	-36.17
354.222	52.07
354.602	-54.34
354.983	91
355.363	67.64
355.744	28.71
356.124	88.4
356.505	10.54
356.885	-41.36
357.266	-18
357.646	33.9
358.026	-23.19
358.407	93.59
358.787	10.54
359.167	-10.22
359.547	-59.53
359.927	109.16
360.307	-25.79
360.687	57.26
361.067	26.11
361.447	49.47
361.827	-38.77
362.207	-18
362.587	13.14
362.966	28.71
363.346	-54.34
363.726	-5.03
364.105	-46.55
364.485	33.9
364.865	15.73
365.244	13.14
365.624	-54.34
366.003	-33.58
366.382	33.9
366.762	96.19
367.141	28.71
367.52	65.04
367.899	2.76
368.279	109.16
368.658	-56.93
369.037	28.71
369.416	-41.36
369.795	44.28
370.174	28.71
370.553	-12.81
370.932	72.83
371.311	20.92
371.689	15.73
372.068	49.47
372.447	39.09
372.825	-10.22
373.204	-30.98
373.583	-59.53
373.961	103.97
374.34	33.9
374.718	-119.22
375.097	5.35
375.475	41.69
375.853	0.16
376.232	26.11
376.61	18.33
376.988	-18
377.366	57.26
377.744	88.4
378.122	127.33
378.5	-119.22
378.878	59.85
379.256	-54.34
379.634	-7.62
380.012	33.9
380.39	-18
380.768	-90.67
381.145	-36.17
381.523	-33.58
381.901	129.92
382.278	20.92
382.656	13.14
383.033	2.76
383.411	78.02
383.788	-111.43
384.166	-5.03
384.543	41.69
384.921	18.33
385.298	96.19
385.675	-20.6
386.052	-33.58
386.429	52.07
386.806	52.07
387.184	7.95
387.561	15.73
387.938	13.14
388.314	-5.03
388.691	10.54
389.068	31.31
389.445	-49.15
389.822	-10.22
390.198	28.71
390.575	-67.31
390.952	10.54
391.328	-33.58
391.705	-5.03
392.081	41.69
392.458	23.52
392.834	-5.03
393.211	93.59
393.587	44.28
393.963	-114.03
394.34	36.5
394.716	-7.62
395.092	72.83
395.468	-5.03
395.844	-67.31
396.22	70.23
396.596	-28.39
396.972	5.35
397.348	33.9
397.724	39.09
398.1	41.69
398.476	91
398.851	137.71
399.227	-93.27
399.603	10.54
399.978	93.59
400.354	83.21
400.729	52.07
401.105	10.54
401.48	83.21
401.856	20.92
402.231	57.26
402.606	67.64
402.982	-25.79
403.357	-41.36
403.732	41.69
404.107	122.14
404.482	-33.58
404.857	54.66
405.232	52.07
405.607	52.07
405.982	5.35
406.357	-15.41
406.732	-41.36
407.107	0.16
407.482	-30.98
407.856	-95.86
408.231	96.19
408.606	-72.5
408.98	-41.36
409.355	52.07
409.729	-30.98
410.104	20.92
410.478	-15.41
410.852	36.5
411.227	-5.03
411.601	26.11
411.975	-36.17
412.35	101.38
412.724	-23.19
413.098	75.42
413.472	179.23
413.846	23.52
414.22	-23.19
414.594	57.26
414.968	41.69
415.342	36.5
415.715	-56.93
416.089	-59.53
416.463	-43.96
416.837	-30.98
417.21	-18
417.584	-54.34
417.957	10.54
418.331	-41.36
418.704	-25.79
419.078	36.5
419.451	98.78
419.824	62.45
420.198	0.16
420.571	39.09
420.944	85.81
421.317	49.47
421.69	78.02
422.064	41.69
422.437	26.11
422.81	-54.34
423.182	-80.29
423.555	59.85
423.928	0.16
424.301	33.9
424.674	-2.43
425.047	-119.22
425.419	-20.6
425.792	72.83
426.164	20.92
426.537	-49.15
426.91	-59.53
427.282	46.88
427.654	-77.69
428.027	67.64
428.399	15.73
428.771	2.76
429.144	59.85
429.516	44.28
429.888	-59.53
430.26	-33.58
430.632	-101.05
431.004	-28.39
431.376	39.09
431.748	85.81
432.12	-59.53
432.492	52.07
432.864	-98.46
433.236	-88.08
433.607	-28.39
433.979	-43.96
434.351	78.02
434.722	65.04
435.094	65.04
435.465	98.78
435.837	111.76
436.208	251.9
436.58	342.73
436.951	111.76
437.322	122.14
437.693	70.23
438.065	31.31
438.436	72.83
438.807	5.35
439.178	78.02
439.549	-88.08
439.92	119.54
440.291	46.88
440.662	-2.43
441.033	65.04
441.403	2.76
441.774	75.42
442.145	122.14
442.516	41.69
442.886	41.69
443.257	83.21
443.627	31.31
443.998	78.02
444.368	-36.17
444.739	15.73
445.109	57.26
445.479	31.31
445.85	70.23
446.22	-95.86
446.59	-12.81
446.96	153.28
447.33	78.02
447.7	212.97
448.07	31.31
448.44	103.97
448.81	122.14
449.18	96.19
449.55	23.52
449.92	31.31
450.29	52.07
450.659	-23.19
451.029	106.57
451.399	75.42
451.768	114.35
452.138	88.4
452.507	67.64
452.877	88.4
453.246	93.59
453.615	88.4
453.985	116.95
454.354	122.14
454.723	158.47
455.092	67.64
455.462	70.23
455.831	122.14
456.2	142.9
456.569	212.97
456.938	205.19
457.307	179.23
457.675	241.52
458.044	106.57
458.413	132.52
458.782	36.5
459.15	101.38
459.519	70.23
459.888	127.33
460.256	39.09
460.625	132.52
460.993	109.16
461.362	119.54
461.73	31.31
462.098	132.52
462.467	96.19
462.835	91
463.203	168.85
463.571	135.11
463.939	57.26
464.307	80.61
464.675	215.57
465.043	119.54
465.411	166.26
465.779	75.42
466.147	140.31
466.515	31.31
466.883	122.14
467.25	192.21
467.618	98.78
467.986	142.9
468.353	98.78
468.721	57.26
469.088	54.66
469.456	111.76
469.823	132.52
470.19	39.09
470.558	106.57
470.925	142.9
471.292	52.07
471.659	148.09
472.027	44.28
472.394	155.88
472.761	153.28
473.128	166.26
473.495	158.47
473.862	41.69
474.228	93.59
474.595	135.11
474.962	83.21
475.329	135.11
475.695	57.26
476.062	5.35
476.429	83.21
476.795	114.35
477.162	93.59
477.528	28.71
477.895	39.09
478.261	62.45
478.627	135.11
478.994	52.07
479.36	-7.62
479.726	26.11
480.092	67.64
480.458	62.45
480.824	88.4
481.19	7.95
481.556	39.09
481.922	85.81
482.288	83.21
482.654	106.57
483.02	-10.22
483.385	93.59
483.751	109.16
484.117	140.31
484.482	20.92
484.848	88.4
485.213	67.64
485.579	106.57
485.944	49.47
486.31	72.83
486.675	116.95
487.04	59.85
487.406	111.76
487.771	212.97
488.136	119.54
488.501	13.14
488.866	114.35
489.231	179.23
489.596	122.14
489.961	194.81
490.326	49.47
490.691	0.16
491.056	137.71
491.42	31.31
491.785	122.14
492.15	119.54
492.514	197.4
492.879	114.35
493.243	114.35
493.608	132.52
493.972	54.66
494.337	192.21
494.701	31.31
495.065	124.73
495.43	39.09
495.794	39.09
496.158	85.81
496.522	103.97
496.886	46.88
497.25	49.47
497.614	57.26
497.978	116.95
498.342	15.73
498.706	54.66
499.07	78.02
499.433	75.42
499.797	54.66
500.161	59.85
500.524	72.83
500.888	49.47
501.251	98.78
501.615	132.52
501.978	96.19
502.342	98.78
502.705	153.28
503.068	116.95
503.432	106.57
503.795	18.33
504.158	158.47
504.521	96.19
504.884	153.28
505.247	88.4
505.61	140.31
505.973	189.61
506.336	75.42
506.699	132.52
507.062	39.09
507.424	174.04
507.787	36.5
508.15	75.42
508.512	70.23
508.875	103.97
509.238	54.66
509.6	148.09
509.962	103.97
510.325	103.97
510.687	124.73
511.049	-20.6
511.412	122.14
511.774	5.35
512.136	103.97
512.498	140.31
512.86	161.07
513.222	-33.58
513.584	65.04
513.946	46.88
514.308	59.85
514.67	49.47
515.032	41.69
515.393	207.78
515.755	205.19
516.117	52.07
516.478	57.26
516.84	150.69
517.201	93.59
517.563	161.07
517.924	83.21
518.286	137.71
518.647	85.81
519.008	103.97
519.37	122.14
519.731	88.4
520.092	-10.22
520.453	142.9
520.814	62.45
521.175	142.9
521.536	85.81
521.897	197.4
522.258	124.73
522.619	135.11
522.979	161.07
523.34	220.76
523.701	145.5
524.061	114.35
524.422	129.92
524.783	158.47
525.143	145.5
525.504	145.5
525.864	150.69
526.224	75.42
526.585	80.61
526.945	176.64
527.305	57.26
527.665	116.95
528.025	62.45
528.385	78.02
528.746	36.5
529.106	142.9
529.465	78.02
529.825	145.5
530.185	49.47
530.545	101.38
530.905	129.92
531.264	189.61
531.624	31.31
531.984	140.31
532.343	39.09
532.703	96.19
533.062	93.59
533.422	140.31
533.781	122.14
534.141	70.23
534.5	13.14
534.859	233.73
535.218	101.38
535.577	93.59
535.937	124.73
536.296	93.59
536.655	168.85
537.014	137.71
537.373	83.21
537.731	150.69
538.09	103.97
538.449	127.33
538.808	181.83
539.166	20.92
539.525	137.71
539.884	103.97
540.242	78.02
540.601	184.42
540.959	161.07
541.318	205.19
541.676	192.21
542.034	303.81
542.393	334.95
542.751	381.66
543.109	347.92
543.467	371.28
543.825	368.69
544.183	376.47
544.541	298.61
544.899	366.09
545.257	384.26
545.615	257.09
545.973	386.85
546.331	236.33
546.688	498.45
547.046	290.83
547.404	202.59
547.761	129.92
548.119	78.02
548.476	228.54
548.834	140.31
549.191	179.23
549.548	168.85
549.906	184.42
550.263	109.16
550.62	75.42
550.977	106.57
551.334	129.92
551.691	101.38
552.048	168.85
552.405	150.69
552.762	210.38
553.119	137.71
553.476	181.83
553.833	197.4
554.189	132.52
554.546	158.47
554.903	101.38
555.259	111.76
555.616	119.54
555.972	129.92
556.329	88.4
556.685	83.21
557.042	96.19
557.398	18.33
557.754	39.09
558.11	59.85
558.467	103.97
558.823	124.73
559.179	187.02
559.535	62.45
559.891	26.11
560.247	72.83
560.603	67.64
560.958	-46.55
561.314	20.92
561.67	85.81
562.026	129.92
562.381	106.57
562.737	142.9
563.092	36.5
563.448	127.33
563.803	127.33
564.159	106.57
564.514	98.78
564.869	80.61
565.225	148.09
565.58	23.52
565.935	62.45
566.29	122.14
566.645	65.04
567	59.85
567.355	83.21
567.71	88.4
568.065	114.35
568.42	57.26
568.775	103.97
569.13	93.59
569.484	111.76
569.839	31.31
570.193	33.9
570.548	78.02
570.903	62.45
571.257	0.16
571.611	88.4
571.966	85.81
572.32	59.85
572.674	10.54
573.029	36.5
573.383	-43.96
573.737	23.52
574.091	109.16
574.445	124.73
574.799	-38.77
575.153	23.52
575.507	122.14
575.861	44.28
576.215	88.4
576.568	109.16
576.922	72.83
577.276	-12.81
577.629	145.5
577.983	153.28
578.336	13.14
578.69	-10.22
579.043	106.57
579.397	72.83
579.75	-2.43
580.103	28.71
580.456	67.64
580.81	106.57
581.163	-98.46
581.516	111.76
581.869	83.21
582.222	18.33
582.575	-46.55
582.928	59.85
583.281	142.9
583.633	62.45
583.986	18.33
584.339	44.28
584.691	-7.62
585.044	2.76
585.397	26.11
585.749	142.9
586.102	31.31
586.454	-30.98
586.806	52.07
587.159	-28.39
587.511	-147.77
587.863	-129.6
588.215	-139.98
588.567	-77.69
588.92	-158.15
589.272	-127
589.624	-54.34
589.975	-64.72
590.327	-54.34
590.679	-142.58
591.031	-72.5
591.383	-98.46
591.734	-114.03
592.086	-88.08
592.438	-69.91
592.789	-223.03
593.141	-319.05
593.492	-285.31
593.844	-313.86
594.195	-254.17
594.546	-236
594.898	-220.43
595.249	-80.29
595.6	-88.08
595.951	-121.81
596.302	-69.91
596.653	-225.62
597.004	-85.48
597.355	-111.43
597.706	-108.84
598.057	-155.55
598.408	-160.74
598.758	-178.91
599.109	-303.48
599.46	-370.96
599.81	-441.03
600.161	-381.34
600.511	-492.93
600.862	-282.72
601.212	-230.81
601.562	-319.05
601.913	-230.81
602.263	-189.29
602.613	-223.03
602.963	-127
603.313	-121.81
603.663	-233.41
604.013	-171.12
604.363	-236
604.713	-191.89
605.063	-223.03
605.413	-236
605.763	-251.58
606.112	-313.86
606.462	-220.43
606.812	-345
607.161	-303.48
607.511	-443.62
607.86	-560.41
608.21	-646.05
608.559	-734.29
608.908	-1006.79
609.258	-1300.05
609.607	-1473.93
609.956	-2216.17
610.305	-3277.63
610.654	-5564.03
611.003	-9716.42
611.352	-15104.13
611.701	-18397.49
612.05	-17538.47
612.399	-15104.13
612.748	-11979.47
613.097	-9602.23
613.445	-7917.91
613.794	-6500.91
614.143	-5833.94
614.491	-5387.56
614.84	-5044.98
615.188	-4806.22
615.537	-4294.96
615.885	-3685.08
616.233	-3020.7
616.581	-2667.74
616.93	-2283.65
617.278	-2021.53
617.626	-1800.93
617.974	-1608.89
618.322	-1442.79
618.67	-1468.74
619.018	-1486.91
619.366	-1590.72
619.714	-1624.46
620.061	-1671.17
620.409	-1704.91
620.757	-1780.17
621.104	-1938.48
621.452	-1839.86
621.799	-1743.84
622.147	-1720.48
622.494	-1601.1
622.842	-1577.74
623.189	-1585.53
623.536	-1505.08
623.884	-1453.17
624.231	-1502.48
624.578	-1515.46
624.925	-1512.86
625.272	-1437.6
625.619	-1370.12
625.966	-1305.24
626.313	-1235.17
626.66	-1201.43
627.007	-1102.81
627.353	-1162.51
627.7	-1159.91
628.047	-1266.31
628.393	-1131.36
628.74	-1144.34
629.086	-1266.31
629.433	-1178.08
629.779	-1307.84
630.125	-1505.08
630.472	-1754.22
630.818	-2216.17
631.164	-2867.58
631.51	-3124.51
631.857	-3020.7
632.203	-2418.6
632.549	-1902.15
632.895	-1383.1
633.24	-996.41
633.586	-809.55
633.932	-534.46
634.278	-407.29
634.624	-332.03
634.969	-280.12
635.315	-248.98
635.66	-313.86
636.006	-290.5
636.351	-321.65
636.697	-155.55
637.042	-88.08
637.388	-251.58
637.733	-155.55
638.078	-56.93
638.423	950.02
638.768	1897.28
639.113	1879.12
639.458	2060.78
639.803	2468.24
640.148	1788.28
640.493	1264.04
640.838	851.4
641.183	443.95
641.527	210.38
641.872	75.42
642.217	-155.55
642.561	-46.55
642.906	-189.29
643.25	-184.1
643.595	-248.98
643.939	-259.36
644.284	-272.34
644.628	-139.98
644.972	-152.96
645.316	-217.84
645.66	-217.84
646.004	-272.34
646.348	-147.77
646.692	-306.08
647.036	-186.7
647.38	-248.98
647.724	-277.53
648.068	-168.53
648.412	-256.77
648.755	-290.5
649.099	-295.7
649.443	-210.05
649.786	-319.05
650.13	-428.05
650.473	-757.65
650.816	-936.72
651.16	-1022.36
651.503	-952.29
651.846	-695.36
652.189	-555.22
652.533	-511.1
652.876	-500.72
653.219	-472.17
653.562	-544.84
653.905	-438.43
654.247	-513.7
654.59	-272.34
654.933	-251.58
655.276	-194.48
655.619	-230.81
655.961	-163.34
656.304	-158.15
656.646	-59.53
656.989	-98.46
657.331	-43.96
657.674	-256.77
658.016	-277.53
658.358	-186.7
658.701	-261.96
659.043	-261.96
659.385	-215.24
659.727	-134.79
660.069	-176.31
660.411	-215.24
660.753	-62.12
661.095	-184.1
661.437	-51.74
661.778	-269.74
662.12	-225.62
662.462	-342.41
662.804	-672
663.145	-653.84
663.487	-466.98
663.828	-492.93
664.17	-451.41
664.511	-386.53
664.852	-311.27
665.194	-243.79
665.535	-147.77
665.876	-152.96
666.217	-124.41
666.558	-186.7
666.899	-313.86
667.24	-178.91
667.581	-225.62
667.922	-186.7
668.263	-145.17
668.604	-313.86
668.944	-319.05
669.285	-238.6
669.626	-243.79
669.966	-145.17
670.307	-251.58
670.647	-163.34
670.988	-186.7
671.328	-106.24
671.669	-171.12
672.009	-184.1
672.349	-171.12
672.689	-30.98
673.029	-171.12
673.369	-59.53
673.71	-191.89
674.049	-142.58
674.389	-176.31
674.729	-215.24
675.069	-95.86
675.409	-54.34
675.749	-142.58
676.088	-98.46
676.428	-101.05
676.768	-248.98
677.107	-251.58
677.447	-246.39
677.786	-54.34
678.125	13.14
678.465	-165.93
678.804	-191.89
679.143	-261.96
679.482	-199.67
679.821	-121.81
680.161	-129.6
680.5	-246.39
680.839	-116.62
681.177	-181.5
681.516	-121.81
681.855	-158.15
682.194	-178.91
682.533	-139.98
682.871	-163.34
683.21	-124.41
683.549	-111.43
683.887	-124.41
684.225	-127
684.564	-111.43
684.902	-82.89
685.241	-18
685.579	5.35
685.917	-75.1
686.255	-33.58
686.593	-176.31
686.931	-184.1
687.269	-298.29
687.607	-542.24
687.945	-513.7
688.283	-482.55
688.621	-529.27
688.959	-482.55
689.296	-378.74
689.634	-261.96
689.972	-210.05
690.309	-124.41
690.647	-127
690.984	-106.24
691.322	-95.86
691.659	-116.62
691.996	-82.89
692.333	-30.98
692.671	-114.03
693.008	-178.91
693.345	-106.24
693.682	-357.98
694.019	-389.12
694.356	-337.22
694.693	-311.27
695.03	-236
695.366	-230.81
695.703	-158.15
696.04	-147.77
696.376	-145.17
696.713	-114.03
697.05	-75.1
697.386	-95.86
697.722	5.35
698.059	-36.17
698.395	46.88
698.731	-7.62
699.068	-56.93
699.404	28.71
699.74	-59.53
700.076	54.66
700.412	-64.72
700.748	23.52
701.084	-15.41
701.42	-106.24
701.756	-28.39
702.091	-108.84
702.427	2.76
702.763	-59.53
703.098	-80.29
703.434	-20.6
703.769	-111.43
704.105	-90.67
704.44	-212.65
704.776	-132.2
705.111	-285.31
705.446	-293.1
705.781	-376.15
706.117	-521.48
706.452	-581.17
706.787	-853.67
707.122	-1183.27
707.457	-1128.77
707.792	-1245.55
708.126	-1193.65
708.461	-1024.96
708.796	-1053.51
709.131	-1437.6
709.465	-1608.89
709.8	-1598.51
710.134	-1276.7
710.469	-1066.48
710.803	-729.1
711.138	-596.74
711.472	-477.36
711.806	-627.89
712.14	-814.74
712.475	-1170.29
712.809	-1248.15
713.143	-1157.31
713.477	-1030.15
713.811	-749.86
714.145	-581.17
714.479	-396.91
714.812	-267.15
715.146	-127
715.48	-103.65
715.814	-197.08
716.147	-77.69
716.481	-56.93
716.814	-7.62
717.148	-15.41
717.481	46.88
717.814	-7.62
718.148	-38.77
718.481	36.5
718.814	2.76
719.147	-7.62
719.48	0.16
719.813	-194.48
720.146	13.14
720.479	-10.22
720.812	26.11
721.145	5.35
721.478	36.5
721.81	-5.03
722.143	72.83
722.476	28.71
722.808	7.95
723.141	33.9
723.473	-95.86
723.806	15.73
724.138	44.28
724.47	-62.12
724.803	0.16
725.135	-10.22
725.467	-2.43
725.799	-72.5
726.131	-10.22
726.463	-98.46
726.795	36.5
727.127	145.5
727.459	62.45
727.791	-30.98
728.122	39.09
728.454	116.95
728.786	5.35
729.117	31.31
729.449	-67.31
729.78	-49.15
730.112	-23.19
730.443	-54.34
730.774	-5.03
731.106	-33.58
731.437	62.45
731.768	33.9
732.099	-25.79
732.43	2.76
732.761	-28.39
733.092	-41.36
733.423	-103.65
733.754	80.61
734.085	-46.55
734.416	20.92
734.746	-36.17
735.077	-88.08
735.407	-33.58
735.738	23.52
736.068	57.26
736.399	13.14
736.729	-75.1
737.06	137.71
737.39	-38.77
737.72	23.52
738.05	-28.39
738.38	-51.74
738.71	18.33
739.041	-80.29
739.37	-64.72
739.7	-49.15
740.03	10.54
740.36	67.64
740.69	54.66
741.02	-15.41
741.349	5.35
741.679	72.83
742.008	-2.43
742.338	-10.22
742.667	28.71
742.997	-28.39
743.326	-72.5
743.655	10.54
743.984	-15.41
744.314	-85.48
744.643	31.31
744.972	26.11
745.301	-93.27
745.63	-18
745.959	26.11
746.288	-62.12
746.616	-43.96
746.945	41.69
747.274	-28.39
747.603	28.71
747.931	-10.22
748.26	-5.03
748.588	62.45
748.917	23.52
749.245	-38.77
749.573	-36.17
749.902	-23.19
750.23	10.54
750.558	-20.6
750.886	-49.15
751.214	7.95
751.542	-23.19
751.87	-30.98
752.198	20.92
752.526	-12.81
752.854	-49.15
753.182	-30.98
753.509	41.69
753.837	-25.79
754.165	-5.03
754.492	13.14
754.82	-36.17
755.147	93.59
755.474	7.95
755.802	-2.43
756.129	137.71
756.456	-23.19
756.783	15.73
757.111	-77.69
757.438	-43.96
757.765	67.64
758.092	83.21
758.418	13.14
758.745	-121.81
759.072	-85.48
759.399	-158.15
759.726	-197.08
760.052	-355.39
760.379	-487.74
760.705	-459.2
761.032	-469.58
761.358	-347.6
761.685	-308.67
762.011	-238.6
762.337	-98.46
762.663	-56.93
762.99	-43.96
763.316	7.95
763.642	-20.6
763.968	-18
764.294	-33.58
764.62	-129.6
764.946	-62.12
765.271	109.16
765.597	103.97
765.923	-7.62
766.248	33.9
766.574	31.31
766.9	75.42
767.225	-10.22
767.55	49.47
767.876	28.71
768.201	-46.55
768.526	-5.03
768.852	15.73
769.177	2.76
769.502	-51.74
769.827	-106.24
770.152	-121.81
770.477	-69.91
770.802	-77.69
771.127	103.97
771.451	15.73
771.776	46.88
772.101	7.95
772.425	-43.96
772.75	5.35
773.075	-23.19
773.399	85.81
773.723	41.69
774.048	-36.17
774.372	-49.15
774.696	-28.39
775.02	-51.74
775.345	-15.41
775.669	49.47
775.993	-49.15
776.317	13.14
776.641	36.5
776.965	106.57
777.288	93.59
777.612	-85.48
777.936	33.9
778.26	70.23
778.583	-18
778.907	20.92
779.23	33.9
779.554	7.95
779.877	-10.22
780.2	109.16
780.524	-41.36
780.847	5.35
781.17	39.09
781.493	-25.79
781.816	-28.39
782.139	-25.79
782.462	54.66
782.785	-56.93
783.108	7.95
783.431	-18
783.754	23.52
784.076	20.92
784.399	-28.39
784.722	-38.77
785.044	103.97
785.367	70.23
785.689	5.35
786.011	-12.81
786.334	-103.65
786.656	-46.55
786.978	62.45
787.3	13.14
787.622	-59.53
787.944	-5.03
788.266	153.28
788.588	-56.93
788.91	-33.58
789.232	-7.62
789.554	33.9
789.876	80.61
790.197	54.66
790.519	-41.36
790.841	28.71
791.162	39.09
791.483	-25.79
791.805	-77.69
792.126	83.21
792.448	-36.17
792.769	-85.48
793.09	-2.43
793.411	13.14
793.732	41.69
794.053	39.09
794.374	-2.43
794.695	28.71
795.016	-77.69
795.337	31.31
795.658	49.47
795.978	39.09
796.299	-103.65
796.619	-23.19
796.94	41.69
797.261	-5.03
797.581	13.14
797.901	31.31
798.222	-15.41
798.542	-36.17
798.862	49.47
799.182	18.33
799.502	41.69
799.822	-85.48
800.142	-23.19
800.462	-33.58
800.782	-64.72
801.102	52.07
801.422	78.02
801.742	-137.39
802.061	-54.34
802.381	-38.77
802.701	0.16
803.02	7.95
803.339	0.16
803.659	52.07
803.978	-2.43
804.298	-15.41
804.617	46.88
804.936	83.21
805.255	-72.5
805.574	-18
805.893	18.33
806.212	-38.77
806.531	-46.55
806.85	-98.46
807.169	10.54
807.487	23.52
807.806	-15.41
808.125	59.85
808.443	2.76
808.762	-15.41
809.08	-43.96
809.399	28.71
809.717	-43.96
810.035	72.83
810.354	-49.15
810.672	-114.03
810.99	-441.03
811.308	-648.65
811.626	-773.22
811.944	-708.34
812.262	-534.46
812.58	-438.43
812.898	-282.72
813.216	-137.39
813.533	-85.48
813.851	-64.72
814.169	-18
814.486	18.33
814.804	10.54
815.121	91
815.438	-98.46
815.756	20.92
816.073	-56.93
816.39	-10.22
816.707	-12.81
817.025	-2.43
817.342	46.88
817.659	-43.96
817.976	5.35
818.292	-43.96
818.609	5.35
818.926	-33.58
819.243	-103.65
819.559	-132.2
819.876	-51.74
820.193	-33.58
820.509	-41.36
820.826	-25.79
821.142	52.07
821.458	-25.79
821.775	39.09
822.091	15.73
822.407	-43.96
822.723	31.31
823.039	70.23
823.355	-15.41
823.671	39.09
823.987	-2.43
824.303	46.88
824.619	15.73
824.935	70.23
825.25	-18
825.566	23.52
825.881	7.95
826.197	-80.29
826.512	-23.19
826.828	-12.81
827.143	-18
827.458	-69.91
827.774	-67.31
828.089	44.28
828.404	-77.69
828.719	-33.58
829.034	-25.79
829.349	-2.43
829.664	-75.1
829.979	-194.48
830.294	-256.77
830.608	-272.34
830.923	-150.36
831.238	-134.79
831.552	-95.86
831.867	0.16
832.181	-69.91
832.496	23.52
832.81	41.69
833.124	109.16
833.439	-30.98
833.753	-46.55
834.067	15.73
834.381	36.5
834.695	-54.34
835.009	52.07
835.323	23.52
835.637	-43.96
835.951	65.04
836.264	7.95
836.578	57.26
836.892	-18
837.205	-30.98
837.519	67.64
837.832	-28.39
838.146	-43.96
838.459	5.35
838.772	-46.55
839.086	101.38
839.399	-30.98
839.712	31.31
840.025	-7.62
840.338	-54.34
840.651	46.88
840.964	31.31
841.277	-119.22
841.59	91
841.902	36.5
842.215	-12.81
842.528	57.26
842.84	-28.39
843.153	0.16
843.465	-23.19
843.778	0.16
844.09	-7.62
844.403	0.16
844.715	93.59
845.027	-69.91
845.339	0.16
845.651	33.9
845.963	0.16
846.275	88.4
846.587	88.4
846.899	15.73
847.211	13.14
847.523	-5.03
847.834	-38.77
848.146	-23.19
848.457	49.47
848.769	-5.03
849.08	59.85
849.392	70.23
849.703	-121.81
850.015	33.9
850.326	-2.43
850.637	2.76
850.948	-33.58
851.259	-95.86
851.57	-30.98
851.881	15.73
852.192	-93.27
852.503	85.81
852.814	-49.15
853.125	46.88
853.435	-49.15
853.746	67.64
854.056	18.33
854.367	41.69
854.677	-64.72
854.988	57.26
855.298	-12.81
855.609	158.47
855.919	41.69
856.229	-51.74
856.539	96.19
856.849	98.78
857.159	57.26
857.469	78.02
857.779	5.35
858.089	-5.03
858.399	-59.53
858.708	49.47
859.018	7.95
859.328	96.19
859.637	54.66
859.947	-36.17
860.256	88.4
860.566	28.71
860.875	-18
861.184	-59.53
861.494	-28.39
861.803	106.57
862.112	91
862.421	-30.98
862.73	109.16
863.039	91
863.348	93.59
863.657	-5.03
863.965	-46.55
864.274	23.52
864.583	72.83
864.891	-41.36
865.2	2.76
865.509	-7.62
865.817	70.23
866.125	-56.93
866.434	57.26
866.742	33.9
867.05	-7.62
867.358	-10.22
867.666	-2.43
867.975	2.76
868.283	20.92
868.59	103.97
868.898	20.92
869.206	80.61
869.514	70.23
869.822	-62.12
870.129	-51.74
870.437	-62.12
870.744	-85.48
871.052	23.52
871.359	119.54
871.667	15.73
871.974	41.69
872.281	33.9
872.589	101.38
872.896	44.28
873.203	18.33
873.51	-62.12
873.817	23.52
874.124	-25.79
874.431	36.5
874.737	129.92
875.044	-93.27
875.351	49.47
875.658	-33.58
875.964	33.9
876.271	7.95
876.577	-10.22
876.884	54.66
877.19	-23.19
877.496	-54.34
877.802	-2.43
878.109	-150.36
878.415	-75.1
878.721	-132.2
879.027	-54.34
879.333	-54.34
879.639	-7.62
879.945	-46.55
880.25	-38.77
880.556	129.92
880.862	-64.72
881.167	26.11
881.473	44.28
881.778	5.35
882.084	13.14
882.389	59.85
882.695	96.19
883	0.16
883.305	33.9
883.61	-10.22
883.915	20.92
884.22	2.76
884.525	41.69
884.83	-18
885.135	-25.79
885.44	62.45
885.745	-18
886.05	15.73
886.354	78.02
886.659	-90.67
886.963	119.54
887.268	-18
887.572	2.76
887.877	96.19
888.181	33.9
888.485	7.95
888.789	-80.29
889.093	72.83
889.398	75.42
889.702	13.14
890.006	5.35
890.309	54.66
890.613	83.21
890.917	72.83
891.221	41.69
891.525	-28.39
891.828	-28.39
892.132	-30.98
892.435	-119.22
892.739	10.54
893.042	-25.79
893.345	-62.12
893.649	-62.12
893.952	-38.77
894.255	-77.69
894.558	-12.81
894.861	-10.22
895.164	-82.89
895.467	41.69
895.77	70.23
896.073	-30.98
896.376	46.88
896.678	36.5
896.981	-46.55
897.284	-132.2
897.586	5.35
897.889	-33.58
898.191	-38.77
898.493	44.28
898.796	-10.22
899.098	44.28
899.4	65.04
899.702	78.02
900.004	36.5
900.306	-82.89
900.608	49.47
900.91	57.26
901.212	33.9
901.514	23.52
901.816	15.73
902.117	28.71
902.419	18.33
902.721	-20.6
903.022	26.11
903.323	-23.19
903.625	67.64
903.926	96.19
904.227	-30.98
904.529	70.23
904.83	62.45
905.131	49.47
905.432	75.42
905.733	36.5
906.034	-30.98
906.335	119.54
906.636	-132.2
906.936	-33.58
907.237	-69.91
907.538	-20.6
907.838	39.09
908.139	67.64
908.439	83.21
908.74	41.69
909.04	67.64
909.34	15.73
909.641	18.33
909.941	15.73
910.241	-25.79
910.541	-69.91
910.841	-38.77
911.141	-69.91
911.441	44.28
911.741	127.33
912.04	-5.03
912.34	-5.03
912.64	-75.1
912.939	13.14
913.239	-7.62
913.538	-85.48
913.838	13.14
914.137	33.9
914.436	-20.6
914.736	18.33
915.035	-10.22
915.334	-38.77
915.633	-20.6
915.932	36.5
916.231	-18
916.53	-41.36
916.829	-51.74
917.128	15.73
917.426	-7.62
917.725	18.33
918.024	109.16
918.322	67.64
918.621	7.95
918.919	-80.29
919.217	-10.22
919.516	59.85
919.814	-101.05
920.112	46.88
920.41	46.88
920.709	5.35
921.007	-2.43
921.305	-20.6
921.602	-33.58
921.9	116.95
922.198	-33.58
922.496	5.35
922.794	78.02
923.091	10.54
923.389	26.11
923.686	28.71
923.984	18.33
924.281	7.95
924.578	0.16
924.876	-38.77
925.173	-10.22
925.47	-28.39
925.767	5.35
926.064	5.35
926.361	20.92
926.658	-46.55
926.955	70.23
927.252	85.81
927.549	7.95
927.845	46.88
928.142	28.71
928.438	0.16
928.735	75.42
929.031	2.76
929.328	-7.62
929.624	-38.77
929.92	62.45
930.217	59.85
930.513	96.19
930.809	49.47
931.105	54.66
931.401	-36.17
931.697	-12.81
931.993	-12.81
932.289	49.47
932.584	-36.17
932.88	-59.53
933.176	10.54
933.471	80.61
933.767	106.57
934.062	127.33
934.358	54.66
934.653	-51.74
934.948	33.9
935.244	-116.62
935.539	-10.22
935.834	28.71
936.129	-41.36
936.424	39.09
936.719	20.92
937.014	103.97
937.309	96.19
937.603	67.64
937.898	18.33
938.193	5.35
938.487	5.35
938.782	116.95
939.076	-95.86
939.371	10.54
939.665	49.47
939.959	70.23
940.254	41.69
940.548	2.76
940.842	20.92
941.136	111.76
941.43	36.5
941.724	-15.41
942.018	-51.74
942.311	52.07
942.605	-85.48
942.899	44.28
943.193	75.42
943.486	10.54
943.78	-10.22
944.073	-46.55
944.367	-43.96
944.66	23.52
944.953	103.97
945.246	-10.22
945.54	-2.43
945.833	5.35
946.126	26.11
946.419	36.5
946.712	-41.36
947.005	5.35
947.297	-49.15
947.59	7.95
947.883	106.57
948.176	5.35
948.468	39.09
948.761	78.02
949.053	75.42
949.346	44.28
949.638	-33.58
949.93	18.33
950.222	39.09
950.515	-18
950.807	-23.19
951.099	111.76
951.391	15.73
951.683	-49.15
951.975	83.21
952.266	88.4
952.558	-5.03
952.85	91
953.141	78.02
953.433	10.54
953.725	23.52
954.016	85.81
954.307	-95.86
954.599	65.04
954.89	83.21
955.181	-75.1
955.472	85.81
955.763	-93.27
956.055	-59.53
956.346	46.88
956.636	10.54
956.927	78.02
957.218	-20.6
957.509	-36.17
957.8	-38.77
958.09	-51.74
958.381	85.81
958.671	83.21
958.962	13.14
959.252	54.66
959.542	176.64
959.833	-56.93
960.123	0.16
960.413	49.47
960.703	-12.81
960.993	41.69
961.283	2.76
961.573	10.54
961.863	78.02
962.153	20.92
962.442	0.16
962.732	39.09
963.022	-20.6
963.311	-64.72
963.601	-46.55
963.89	5.35
964.18	49.47
964.469	10.54
964.758	75.42
965.047	75.42
965.337	-12.81
965.626	-108.84
965.915	-82.89
966.204	-7.62
966.493	70.23
966.781	-18
967.07	-23.19
967.359	-41.36
967.648	-46.55
967.936	-2.43
968.225	67.64
968.513	59.85
968.802	-114.03
969.09	122.14
969.378	-41.36
969.666	13.14
969.955	106.57
970.243	5.35
970.531	88.4
970.819	78.02
971.107	49.47
971.395	46.88
971.683	54.66
971.97	54.66
972.258	-33.58
972.546	57.26
972.833	-64.72
973.121	18.33
973.408	-25.79
973.696	-18
973.983	111.76
974.27	57.26
974.558	46.88
974.845	-80.29
975.132	13.14
975.419	91
975.706	13.14
975.993	-54.34
976.28	-30.98
976.566	46.88
976.853	-18
977.14	-49.15
977.426	54.66
977.713	10.54
978	33.9
978.286	-41.36
978.572	75.42
978.859	39.09
979.145	41.69
979.431	67.64
979.717	41.69
980.003	-56.93
980.289	5.35
980.575	0.16
980.861	70.23
981.147	-56.93
981.433	2.76
981.719	23.52
982.004	-46.55
982.29	57.26
982.575	-38.77
982.861	33.9
983.146	-36.17
983.432	-43.96
983.717	85.81
984.002	18.33
984.287	-46.55
984.573	59.85
984.858	-2.43
985.143	41.69
985.428	41.69
985.712	54.66
985.997	7.95
986.282	46.88
986.567	31.31
986.851	0.16
987.136	75.42
987.42	72.83
987.705	-2.43
987.989	-30.98
988.274	-51.74
988.558	-43.96
988.842	-77.69
989.126	75.42
989.41	-41.36
989.694	-51.74
989.978	-20.6
990.262	13.14
990.546	-2.43
990.83	-36.17
991.114	-10.22
991.397	5.35
991.681	18.33
991.965	-25.79
992.248	2.76
992.531	46.88
992.815	-111.43
993.098	-80.29
993.381	-28.39
993.665	41.69
993.948	-69.91
994.231	28.71
994.514	-10.22
994.797	-36.17
995.08	26.11
995.362	-54.34
995.645	-2.43
995.928	-5.03
996.211	-18
996.493	-28.39
996.776	85.81
997.058	-46.55
997.34	-80.29
997.623	44.28
997.905	-49.15
998.187	26.11
998.469	59.85
998.752	18.33
999.034	80.61
999.316	-20.6
999.597	-18
999.879	-54.34
1000.161	26.11
1000.443	5.35
1000.725	20.92
1001.006	2.76
1001.288	44.28
1001.569	28.71
1001.851	39.09
1002.132	72.83
1002.413	41.69
1002.694	109.16
1002.976	7.95
1003.257	49.47
1003.538	-20.6
1003.819	-15.41
1004.1	39.09
1004.381	18.33
1004.661	10.54
1004.942	-93.27
1005.223	-18
1005.504	18.33
1005.784	119.54
1006.065	5.35
1006.345	129.92
1006.625	18.33
1006.906	33.9
1007.186	148.09
1007.466	7.95
1007.746	-28.39
1008.026	-36.17
1008.306	13.14
1008.586	-18
1008.866	116.95
1009.146	-75.1
1009.426	-80.29
1009.706	5.35
1009.985	-23.19
1010.265	-67.31
1010.544	-23.19
1010.824	-15.41
1011.103	23.52
1011.383	-5.03
1011.662	-7.62
1011.941	-88.08
1012.22	2.76
1012.499	101.38
1012.778	-59.53
1013.057	54.66
1013.336	-28.39
1013.615	-56.93
1013.894	83.21
1014.173	-64.72
1014.451	15.73
1014.73	83.21
1015.009	-12.81
1015.287	78.02
1015.566	26.11
1015.844	-95.86
1016.122	88.4
1016.4	-7.62
1016.679	-38.77
1016.957	-69.91
1017.235	23.52
1017.513	-18
1017.791	-23.19
1018.069	106.57
1018.346	-75.1
1018.624	36.5
1018.902	-7.62
1019.179	83.21
1019.457	20.92
1019.735	54.66
1020.012	116.95
1020.289	41.69
1020.567	41.69
1020.844	41.69
